# AFGL atmospheric constituent profile. U.S. standard atmosphere 1976. ( AFGL-TR-86-0110)       
#     z[km]   plm[mbar]     temp[K]     q[kg/kg]
    120.000     0.00003     360.000 1.250915e-07
    115.000     0.00004     300.000 1.501034e-07
    110.000     0.00007     240.000 1.751072e-07
    105.000     0.00014     208.800 2.126359e-07
    100.000     0.00032     195.100 2.502174e-07
     95.000     0.00076     188.400 3.377587e-07
     90.000     0.00184     186.900 5.316593e-07
     85.000     0.00446     188.900 8.317006e-07
     80.000     0.01050     198.600 1.282146e-06
     75.000     0.02400     208.400 1.766866e-06
     70.000     0.05220     219.600 2.189190e-06
     65.000     0.10900     233.300 2.626593e-06
     60.000     0.21900     247.000 2.970677e-06
     55.000     0.42500     260.800 3.189385e-06
     50.000     0.79780     270.700 3.267759e-06
     47.500     1.09000     270.600 3.284064e-06
     45.000     1.49100     264.200 3.267631e-06
     42.500     2.06000     257.300 3.221073e-06
     40.000     2.87100     250.400 3.142725e-06
     37.500     4.04116     243.435 3.185367e-06
     35.000     5.74600     236.500 3.064708e-06
     32.500     8.25725     229.588 2.921836e-06
     30.000    11.97000     226.500 2.954900e-06
     27.500    17.43000     224.000 2.861469e-06
     25.000    25.49000     221.600 2.767523e-06
     24.000    29.72000     220.600 2.689463e-06
     23.000    34.67000     219.600 2.626166e-06
     22.000    40.47000     218.600 2.542719e-06
     21.000    47.29000     217.600 2.485852e-06
     20.000    55.29000     216.700 2.438832e-06
     19.000    64.67000     216.700 2.407917e-06
     18.000    75.65000     216.700 2.392049e-06
     17.000    88.50000     216.700 2.407888e-06
     16.000   103.50000     216.700 2.470648e-06
     15.000   121.10000     216.700 3.126857e-06
     14.000   141.70000     216.700 3.706626e-06
     13.000   165.80000     216.700 6.786599e-06
     12.000   194.00000     216.700 1.192136e-05
     11.000   227.00000     216.800 2.259718e-05
     10.000   265.00000     223.300 4.375828e-05
      9.000   308.00000     229.700 9.901045e-05
      8.000   356.50000     236.200 2.293596e-04
      7.000   411.10001     242.700 3.578366e-04
      6.000   472.20001     249.200 5.786155e-04
      5.000   540.50000     255.700 8.736919e-04
      4.000   616.59998     262.200 1.349330e-03
      3.000   701.20001     268.700 1.989692e-03
      2.000   795.00000     275.200 2.896684e-03
      1.000   898.79999     281.700 3.797763e-03
